PE IR       SPECTRUM    SPECTRUM    ASCII       PEDS        1.60        
  -1
BACKGR~1.ASC
80/01/12
21:40:05.00
80/01/12
21:40:05.00
Admin

400.000000
4









502,2.19
LITAO3
MIR
KBR
70765
0.300000
1
4.000000
STRONG
SINGLE
SPECTRUM


DOUBLE

BI DIRECTIONAL
2

0


#HDR
-1
-1
#GR
CM-1
EGY
0.00002384185791015625
0.0
6000.000000
-2.000000
2801
8
57.321929
0.263214
#DATA
6000.000000	14.093780 
5998.000000	14.108276 
5996.000000	14.130401 
5994.000000	14.151000 
5992.000000	14.160919 
5990.000000	14.183044 
5988.000000	14.205932 
5986.000000	14.217376 
5984.000000	14.231872 
5982.000000	14.249420 
5980.000000	14.265441 
5978.000000	14.276123 
5976.000000	14.275360 
5974.000000	14.282989 
5972.000000	14.315032 
5970.000000	14.338684 
5968.000000	14.352416 
5966.000000	14.376068 
5964.000000	14.389801 
5962.000000	14.405059 
5960.000000	14.420318 
5958.000000	14.427185 
5956.000000	14.443969 
5954.000000	14.466094 
5952.000000	14.476776 
5950.000000	14.490509 
5948.000000	14.502716 
5946.000000	14.517974 
5944.000000	14.536285 
5942.000000	14.562988 
5940.000000	14.579772 
5938.000000	14.591979 
5936.000000	14.613342 
5934.000000	14.623260 
5932.000000	14.630126 
5930.000000	14.645385 
5928.000000	14.659118 
5926.000000	14.679718 
5924.000000	14.694976 
5922.000000	14.701843 
5920.000000	14.714813 
5918.000000	14.733886 
5916.000000	14.752960 
5914.000000	14.772796 
5912.000000	14.787292 
5910.000000	14.794158 
5908.000000	14.802551 
5906.000000	14.823150 
5904.000000	14.845275 
5902.000000	14.851379 
5900.000000	14.868164 
5898.000000	14.884948 
5896.000000	14.898681 
5894.000000	14.911651 
5892.000000	14.926147 
5890.000000	14.945983 
5888.000000	14.958190 
5886.000000	14.967346 
5884.000000	14.978027 
5882.000000	14.999389 
5880.000000	15.023803 
5878.000000	15.038299 
5876.000000	15.052032 
5874.000000	15.064239 
5872.000000	15.071868 
5870.000000	15.081787 
5868.000000	15.081787 
5866.000000	15.091705 
5864.000000	15.122985 
5862.000000	15.146636 
5860.000000	15.159606 
5858.000000	15.170288 
5856.000000	15.187835 
5854.000000	15.207672 
5852.000000	15.232086 
5850.000000	15.251922 
5848.000000	15.254974 
5846.000000	15.269470 
5844.000000	15.300750 
5842.000000	15.328979 
5840.000000	15.325927 
5838.000000	15.328979 
5836.000000	15.360260 
5834.000000	15.378570 
5832.000000	15.388488 
5830.000000	15.406036 
5828.000000	15.415954 
5826.000000	15.431213 
5824.000000	15.447998 
5822.000000	15.466308 
5820.000000	15.487670 
5818.000000	15.500640 
5816.000000	15.509033 
5814.000000	15.512084 
5812.000000	15.525054 
5810.000000	15.544891 
5808.000000	15.563964 
5806.000000	15.583801 
5804.000000	15.605926 
5802.000000	15.608978 
5800.000000	15.616607 
5798.000000	15.637969 
5796.000000	15.656280 
5794.000000	15.669250 
5792.000000	15.675354 
5790.000000	15.689849 
5788.000000	15.709686 
5786.000000	15.717315 
5784.000000	15.725708 
5782.000000	15.741729 
5780.000000	15.779113 
5778.000000	15.793609 
5776.000000	15.798950 
5774.000000	15.816497 
5772.000000	15.826416 
5770.000000	15.832519 
5768.000000	15.850067 
5766.000000	15.874481 
5764.000000	15.896606 
5762.000000	15.910339 
5760.000000	15.924072 
5758.000000	15.943908 
5756.000000	15.959930 
5754.000000	15.967559 
5752.000000	15.969848 
5750.000000	15.979003 
5748.000000	15.998840 
5746.000000	16.021728 
5744.000000	16.036224 
5742.000000	16.049957 
5740.000000	16.064453 
5738.000000	16.078948 
5736.000000	16.090393 
5734.000000	16.116333 
5732.000000	16.139984 
5730.000000	16.152954 
5728.000000	16.157531 
5726.000000	16.155242 
5724.000000	16.171264 
5722.000000	16.198730 
5720.000000	16.226196 
5718.000000	16.252899 
5716.000000	16.260528 
5714.000000	16.269683 
5712.000000	16.284942 
5710.000000	16.304016 
5708.000000	16.320037 
5706.000000	16.338348 
5704.000000	16.359710 
5702.000000	16.374206 
5700.000000	16.381835 
5698.000000	16.384124 
5696.000000	16.398620 
5694.000000	16.419219 
5692.000000	16.437530 
5690.000000	16.445159 
5688.000000	16.465759 
5686.000000	16.493988 
5684.000000	16.501617 
5682.000000	16.510009 
5680.000000	16.528320 
5678.000000	16.548156 
5676.000000	16.559600 
5674.000000	16.566467 
5672.000000	16.587829 
5670.000000	16.620635 
5668.000000	16.643524 
5666.000000	16.645812 
5664.000000	16.635131 
5662.000000	16.646575 
5660.000000	16.680145 
5658.000000	16.715240 
5656.000000	16.735076 
5654.000000	16.738128 
5652.000000	16.747283 
5650.000000	16.767883 
5648.000000	16.799926 
5646.000000	16.825103 
5644.000000	16.830444 
5642.000000	16.835784 
5640.000000	16.852569 
5638.000000	16.868591 
5636.000000	16.886138 
5634.000000	16.905975 
5632.000000	16.916656 
5630.000000	16.934204 
5628.000000	16.962432 
5626.000000	16.984558 
5624.000000	16.986846 
5622.000000	16.995239 
5620.000000	17.018890 
5618.000000	17.040252 
5616.000000	17.042541 
5614.000000	17.044830 
5612.000000	17.072296 
5610.000000	17.113494 
5608.000000	17.136383 
5606.000000	17.134857 
5604.000000	17.119598 
5602.000000	17.121887 
5600.000000	17.152404 
5598.000000	17.177581 
5596.000000	17.198181 
5594.000000	17.227935 
5592.000000	17.250823 
5590.000000	17.269897 
5588.000000	17.290496 
5586.000000	17.304229 
5584.000000	17.311096 
5582.000000	17.317962 
5580.000000	17.325592 
5578.000000	17.332458 
5576.000000	17.342376 
5574.000000	17.362213 
5572.000000	17.379760 
5570.000000	17.389678 
5568.000000	17.392730 
5566.000000	17.398834 
5564.000000	17.436981 
5562.000000	17.476654 
5560.000000	17.510986 
5558.000000	17.498779 
5556.000000	17.424774 
5554.000000	17.344665 
5552.000000	17.333984 
5550.000000	17.356109 
5548.000000	17.388916 
5546.000000	17.469024 
5544.000000	17.560577 
5542.000000	17.615509 
5540.000000	17.559051 
5538.000000	17.413330 
5536.000000	17.366027 
5534.000000	17.449951 
5532.000000	17.561340 
5530.000000	17.630767 
5528.000000	17.687988 
5526.000000	17.694091 
5524.000000	17.548370 
5522.000000	17.447662 
5520.000000	17.462921 
5518.000000	17.424011 
5516.000000	17.475128 
5514.000000	17.665863 
5512.000000	17.739105 
5510.000000	17.478179 
5508.000000	17.214202 
5506.000000	17.282104 
5504.000000	17.494201 
5502.000000	17.674255 
5500.000000	17.698669 
5498.000000	17.720794 
5496.000000	17.401885 
5494.000000	16.757965 
5492.000000	16.545867 
5490.000000	16.652679 
5488.000000	16.942596 
5486.000000	17.440795 
5484.000000	17.874145 
5482.000000	18.112945 
5480.000000	18.092346 
5478.000000	17.372131 
5476.000000	16.604614 
5474.000000	16.847229 
5472.000000	17.332458 
5470.000000	17.372131 
5468.000000	17.324829 
5466.000000	17.318725 
5464.000000	17.127990 
5462.000000	16.847991 
5460.000000	16.997528 
5458.000000	17.297363 
5456.000000	17.609405 
5454.000000	17.928314 
5452.000000	17.761993 
5450.000000	17.263031 
5448.000000	16.716003 
5446.000000	16.332244 
5444.000000	16.233062 
5442.000000	16.191864 
5440.000000	16.768646 
5438.000000	17.123413 
5436.000000	16.787719 
5434.000000	16.847991 
5432.000000	16.772460 
5430.000000	16.212463 
5428.000000	16.416931 
5426.000000	17.280578 
5424.000000	17.989349 
5422.000000	18.441772 
5420.000000	18.659210 
5418.000000	18.405914 
5416.000000	17.322540 
5414.000000	16.226196 
5412.000000	15.766906 
5410.000000	16.147613 
5408.000000	17.163085 
5406.000000	17.863464 
5404.000000	18.227386 
5402.000000	18.553161 
5400.000000	18.610382 
5398.000000	18.112945 
5396.000000	17.295074 
5394.000000	16.951751 
5392.000000	17.616271 
5390.000000	18.235778 
5388.000000	17.952728 
5386.000000	17.521667 
5384.000000	17.855834 
5382.000000	18.437194 
5380.000000	18.290710 
5378.000000	17.418670 
5376.000000	17.053222 
5374.000000	17.601776 
5372.000000	18.415832 
5370.000000	18.937683 
5368.000000	19.059753 
5366.000000	18.769836 
5364.000000	18.528747 
5362.000000	18.728637 
5360.000000	19.070434 
5358.000000	19.018554 
5356.000000	17.983245 
5354.000000	16.991424 
5352.000000	17.175292 
5350.000000	17.568206 
5348.000000	17.391204 
5346.000000	16.494750 
5344.000000	16.424560 
5342.000000	16.985321 
5340.000000	16.561126 
5338.000000	16.379547 
5336.000000	17.176818 
5334.000000	17.891693 
5332.000000	18.296051 
5330.000000	18.224334 
5328.000000	17.907714 
5326.000000	18.321228 
5324.000000	19.049835 
5322.000000	19.532012 
5320.000000	19.699859 
5318.000000	19.609069 
5316.000000	19.567108 
5314.000000	19.715881 
5312.000000	19.821166 
5310.000000	19.412231 
5308.000000	18.935394 
5306.000000	19.116210 
5304.000000	19.484710 
5302.000000	19.627380 
5300.000000	19.705200 
5298.000000	19.944000 
5296.000000	20.137023 
5294.000000	19.992828 
5292.000000	19.293212 
5290.000000	19.015502 
5288.000000	19.303131 
5286.000000	19.382476 
5284.000000	19.500732 
5282.000000	19.617462 
5280.000000	19.786071 
5278.000000	20.118713 
5276.000000	20.369720 
5274.000000	20.477294 
5272.000000	20.284271 
5270.000000	19.906616 
5268.000000	19.523620 
5266.000000	18.757629 
5264.000000	18.140411 
5262.000000	18.451690 
5260.000000	19.347381 
5258.000000	19.667053 
5256.000000	19.216156 
5254.000000	19.300842 
5252.000000	19.590759 
5250.000000	18.991851 
5248.000000	18.402099 
5246.000000	18.259429 
5244.000000	18.725585 
5242.000000	19.697570 
5240.000000	20.316314 
5238.000000	20.609283 
5236.000000	20.603942 
5234.000000	20.286560 
5232.000000	19.989013 
5230.000000	20.029449 
5228.000000	19.670104 
5226.000000	19.110107 
5224.000000	19.438934 
5222.000000	20.075225 
5220.000000	20.291137 
5218.000000	20.433044 
5216.000000	20.806884 
5214.000000	21.141052 
5212.000000	20.995330 
5210.000000	20.028686 
5208.000000	18.829345 
5206.000000	18.776702 
5204.000000	19.853210 
5202.000000	20.832061 
5200.000000	21.013641 
5198.000000	20.689392 
5196.000000	20.793151 
5194.000000	21.189117 
5192.000000	21.322631 
5190.000000	21.210479 
5188.000000	21.018218 
5186.000000	20.732116 
5184.000000	20.877075 
5182.000000	21.183776 
5180.000000	21.349334 
5178.000000	21.488952 
5176.000000	21.636199 
5174.000000	21.702575 
5172.000000	21.603393 
5170.000000	21.640014 
5168.000000	21.804046 
5166.000000	21.710968 
5164.000000	21.576690 
5162.000000	21.669006 
5160.000000	21.736145 
5158.000000	21.648406 
5156.000000	21.648406 
5154.000000	21.829986 
5152.000000	21.996307 
5150.000000	22.159576 
5148.000000	22.311401 
5146.000000	22.359466 
5144.000000	22.259521 
5142.000000	22.196197 
5140.000000	22.318267 
5138.000000	22.451782 
5136.000000	22.489166 
5134.000000	22.489166 
5132.000000	22.545623 
5130.000000	22.634887 
5128.000000	22.716522 
5126.000000	22.788238 
5124.000000	22.831726 
5122.000000	22.801971 
5120.000000	22.741699 
5118.000000	22.758483 
5116.000000	22.814178 
5114.000000	22.868347 
5112.000000	22.942352 
5110.000000	23.007965 
5108.000000	23.044586 
5106.000000	23.081970 
5104.000000	23.139190 
5102.000000	23.188018 
5100.000000	23.207855 
5098.000000	23.220062 
5096.000000	23.245239 
5094.000000	23.281097 
5092.000000	23.346710 
5090.000000	23.419189 
5088.000000	23.468017 
5086.000000	23.518371 
5084.000000	23.566436 
5082.000000	23.603820 
5080.000000	23.646545 
5078.000000	23.687744 
5076.000000	23.710632 
5074.000000	23.711395 
5072.000000	23.739624 
5070.000000	23.799896 
5068.000000	23.848724 
5066.000000	23.888397 
5064.000000	23.928070 
5062.000000	23.959350 
5060.000000	24.005889 
5058.000000	24.057769 
5056.000000	24.105834 
5054.000000	24.143981 
5052.000000	24.159240 
5050.000000	24.170684 
5048.000000	24.207305 
5046.000000	24.263763 
5044.000000	24.308776 
5042.000000	24.346160 
5040.000000	24.386596 
5038.000000	24.430084 
5036.000000	24.468231 
5034.000000	24.494171 
5032.000000	24.524688 
5030.000000	24.564361 
5028.000000	24.602508 
5026.000000	24.629211 
5024.000000	24.666595 
5022.000000	24.721527 
5020.000000	24.755096 
5018.000000	24.785614 
5016.000000	24.831390 
5014.000000	24.874114 
5012.000000	24.900817 
5010.000000	24.938964 
5008.000000	24.988555 
5006.000000	25.018310 
5004.000000	25.054168 
5002.000000	25.096130 
5000.000000	25.126647 
4998.000000	25.159454 
4996.000000	25.193786 
4994.000000	25.220489 
4992.000000	25.252532 
4990.000000	25.294494 
4988.000000	25.343322 
4986.000000	25.391387 
4984.000000	25.433349 
4982.000000	25.472259 
4980.000000	25.514221 
4978.000000	25.563049 
4976.000000	25.605773 
4974.000000	25.637817 
4972.000000	25.671386 
4970.000000	25.712585 
4968.000000	25.760650 
4966.000000	25.790405 
4964.000000	25.824737 
4962.000000	25.870513 
4960.000000	25.906372 
4958.000000	25.938415 
4956.000000	25.981903 
4954.000000	26.029968 
4952.000000	26.074981 
4950.000000	26.116180 
4948.000000	26.155090 
4946.000000	26.197052 
4944.000000	26.239013 
4942.000000	26.279449 
4940.000000	26.320648 
4938.000000	26.356506 
4936.000000	26.396179 
4934.000000	26.434326 
4932.000000	26.469421 
4930.000000	26.508331 
4928.000000	26.550292 
4926.000000	26.586914 
4924.000000	26.624298 
4922.000000	26.663208 
4920.000000	26.711273 
4918.000000	26.754760 
4916.000000	26.781463 
4914.000000	26.812744 
4912.000000	26.851654 
4910.000000	26.889038 
4908.000000	26.922607 
4906.000000	26.959991 
4904.000000	26.996612 
4902.000000	27.034759 
4900.000000	27.072143 
4898.000000	27.116394 
4896.000000	27.163696 
4894.000000	27.209472 
4892.000000	27.257537 
4890.000000	27.304077 
4888.000000	27.342224 
4886.000000	27.377319 
4884.000000	27.420806 
4882.000000	27.470397 
4880.000000	27.515411 
4878.000000	27.557373 
4876.000000	27.593994 
4874.000000	27.626037 
4872.000000	27.660369 
4870.000000	27.704620 
4868.000000	27.750396 
4866.000000	27.799224 
4864.000000	27.853393 
4862.000000	27.889251 
4860.000000	27.924346 
4858.000000	27.969360 
4856.000000	28.022766 
4854.000000	28.070831 
4852.000000	28.119659 
4850.000000	28.170776 
4848.000000	28.213500 
4846.000000	28.253936 
4844.000000	28.285217 
4842.000000	28.320312 
4840.000000	28.375244 
4838.000000	28.427124 
4836.000000	28.463745 
4834.000000	28.498077 
4832.000000	28.537750 
4830.000000	28.580474 
4828.000000	28.624725 
4826.000000	28.666687 
4824.000000	28.707122 
4822.000000	28.751373 
4820.000000	28.800201 
4818.000000	28.847503 
4816.000000	28.888702 
4814.000000	28.929901 
4812.000000	28.971099 
4810.000000	29.013061 
4808.000000	29.058074 
4806.000000	29.096984 
4804.000000	29.133605 
4802.000000	29.182434 
4800.000000	29.232025 
4798.000000	29.275512 
4796.000000	29.320526 
4794.000000	29.362487 
4792.000000	29.402160 
4790.000000	29.454803 
4788.000000	29.502868 
4786.000000	29.547119 
4784.000000	29.592895 
4782.000000	29.636383 
4780.000000	29.676818 
4778.000000	29.712677 
4776.000000	29.759216 
4774.000000	29.808807 
4772.000000	29.846954 
4770.000000	29.887390 
4768.000000	29.929351 
4766.000000	29.970550 
4764.000000	30.014038 
4762.000000	30.065917 
4760.000000	30.113983 
4758.000000	30.152130 
4756.000000	30.195617 
4754.000000	30.242156 
4752.000000	30.285644 
4750.000000	30.329895 
4748.000000	30.376434 
4746.000000	30.424499 
4744.000000	30.467987 
4742.000000	30.506896 
4740.000000	30.551910 
4738.000000	30.596923 
4736.000000	30.643463 
4734.000000	30.682373 
4732.000000	30.726623 
4730.000000	30.772399 
4728.000000	30.810546 
4726.000000	30.839538 
4724.000000	30.872344 
4722.000000	30.918121 
4720.000000	30.973815 
4718.000000	31.024169 
4716.000000	31.069946 
4714.000000	31.112670 
4712.000000	31.150817 
4710.000000	31.190490 
4708.000000	31.227874 
4706.000000	31.273651 
4704.000000	31.313323 
4702.000000	31.350708 
4700.000000	31.404876 
4698.000000	31.459808 
4696.000000	31.498718 
4694.000000	31.533050 
4692.000000	31.574249 
4690.000000	31.614685 
4688.000000	31.645202 
4686.000000	31.681060 
4684.000000	31.722259 
4682.000000	31.768035 
4680.000000	31.804656 
4678.000000	31.842041 
4676.000000	31.887054 
4674.000000	31.932067 
4672.000000	31.974792 
4670.000000	32.018280 
4668.000000	32.061004 
4666.000000	32.108306 
4664.000000	32.147216 
4662.000000	32.181549 
4660.000000	32.224273 
4658.000000	32.263183 
4656.000000	32.296752 
4654.000000	32.331085 
4652.000000	32.366180 
4650.000000	32.400512 
4648.000000	32.442474 
4646.000000	32.487487 
4644.000000	32.527160 
4642.000000	32.556915 
4640.000000	32.587432 
4638.000000	32.634735 
4636.000000	32.677459 
4634.000000	32.708740 
4632.000000	32.744598 
4630.000000	32.781219 
4628.000000	32.815551 
4626.000000	32.852172 
4624.000000	32.886505 
4622.000000	32.920837 
4620.000000	32.959747 
4618.000000	32.994079 
4616.000000	33.023834 
4614.000000	33.049011 
4612.000000	33.080291 
4610.000000	33.127593 
4608.000000	33.159637 
4606.000000	33.180999 
4604.000000	33.226776 
4602.000000	33.271026 
4600.000000	33.289337 
4598.000000	33.315277 
4596.000000	33.349609 
4594.000000	33.385467 
4592.000000	33.421325 
4590.000000	33.450317 
4588.000000	33.490753 
4586.000000	33.536529 
4584.000000	33.557128 
4582.000000	33.568572 
4580.000000	33.598327 
4578.000000	33.631134 
4576.000000	33.665466 
4574.000000	33.714294 
4572.000000	33.757781 
4570.000000	33.792877 
4568.000000	33.821868 
4566.000000	33.850097 
4564.000000	33.889007 
4562.000000	33.932495 
4560.000000	33.972167 
4558.000000	34.004211 
4556.000000	34.036254 
4554.000000	34.079742 
4552.000000	34.123992 
4550.000000	34.166717 
4548.000000	34.204864 
4546.000000	34.249877 
4544.000000	34.300994 
4542.000000	34.344482 
4540.000000	34.390258 
4538.000000	34.444427 
4536.000000	34.490966 
4534.000000	34.535217 
4532.000000	34.596252 
4530.000000	34.651184 
4528.000000	34.694671 
4526.000000	34.742736 
4524.000000	34.797668 
4522.000000	34.860229 
4520.000000	34.922790 
4518.000000	34.973144 
4516.000000	35.026550 
4514.000000	35.085296 
4512.000000	35.145568 
4510.000000	35.205078 
4508.000000	35.266113 
4506.000000	35.318756 
4504.000000	35.370635 
4502.000000	35.435485 
4500.000000	35.506439 
4498.000000	35.570526 
4496.000000	35.636138 
4494.000000	35.706329 
4492.000000	35.772705 
4490.000000	35.825347 
4488.000000	35.876464 
4486.000000	35.943603 
4484.000000	36.023712 
4482.000000	36.096191 
4480.000000	36.156463 
4478.000000	36.222839 
4476.000000	36.286926 
4474.000000	36.345672 
4472.000000	36.409759 
4470.000000	36.473846 
4468.000000	36.537933 
4466.000000	36.605834 
4464.000000	36.674499 
4462.000000	36.743927 
4460.000000	36.803436 
4458.000000	36.859893 
4456.000000	36.929321 
4454.000000	36.999511 
4452.000000	37.055969 
4450.000000	37.108612 
4448.000000	37.168121 
4446.000000	37.238311 
4444.000000	37.305450 
4442.000000	37.364196 
4440.000000	37.429809 
4438.000000	37.504577 
4436.000000	37.576293 
4434.000000	37.631225 
4432.000000	37.683105 
4430.000000	37.750244 
4428.000000	37.815093 
4426.000000	37.870788 
4424.000000	37.933349 
4422.000000	37.998199 
4420.000000	38.064575 
4418.000000	38.121032 
4416.000000	38.182067 
4414.000000	38.249969 
4412.000000	38.311004 
4410.000000	38.368225 
4408.000000	38.432312 
4406.000000	38.487243 
4404.000000	38.543701 
4402.000000	38.601684 
4400.000000	38.664245 
4398.000000	38.717651 
4396.000000	38.766479 
4394.000000	38.829803 
4392.000000	38.895416 
4390.000000	38.952636 
4388.000000	39.009094 
4386.000000	39.069366 
4384.000000	39.121246 
4382.000000	39.173126 
4380.000000	39.233398 
4378.000000	39.283752 
4376.000000	39.329528 
4374.000000	39.386749 
4372.000000	39.447784 
4370.000000	39.514923 
4368.000000	39.579010 
4366.000000	39.632415 
4364.000000	39.685058 
4362.000000	39.734649 
4360.000000	39.781951 
4358.000000	39.846038 
4356.000000	39.924621 
4354.000000	39.987945 
4352.000000	40.036773 
4350.000000	40.091705 
4348.000000	40.148925 
4346.000000	40.203094 
4344.000000	40.264129 
4342.000000	40.335083 
4340.000000	40.401458 
4338.000000	40.453338 
4336.000000	40.506744 
4334.000000	40.566253 
4332.000000	40.619659 
4330.000000	40.669250 
4328.000000	40.727233 
4326.000000	40.787506 
4324.000000	40.844726 
4322.000000	40.905761 
4320.000000	40.969085 
4318.000000	41.018676 
4316.000000	41.070556 
4314.000000	41.134643 
4312.000000	41.196441 
4310.000000	41.246032 
4308.000000	41.301727 
4306.000000	41.354370 
4304.000000	41.413116 
4302.000000	41.474914 
4300.000000	41.535186 
4298.000000	41.583251 
4296.000000	41.635894 
4294.000000	41.695404 
4292.000000	41.747283 
4290.000000	41.789245 
4288.000000	41.835021 
4286.000000	41.888427 
4284.000000	41.941833 
4282.000000	41.989135 
4280.000000	42.027282 
4278.000000	42.074584 
4276.000000	42.135620 
4274.000000	42.181396 
4272.000000	42.215728 
4270.000000	42.261505 
4268.000000	42.308807 
4266.000000	42.359161 
4264.000000	42.417907 
4262.000000	42.472839 
4260.000000	42.526245 
4258.000000	42.583465 
4256.000000	42.638397 
4254.000000	42.690277 
4252.000000	42.723846 
4250.000000	42.767333 
4248.000000	42.834472 
4246.000000	42.901611 
4244.000000	42.955017 
4242.000000	43.012237 
4240.000000	43.066406 
4238.000000	43.126678 
4236.000000	43.185424 
4234.000000	43.231964 
4232.000000	43.280792 
4230.000000	43.338775 
4228.000000	43.392944 
4226.000000	43.441009 
4224.000000	43.491363 
4222.000000	43.542480 
4220.000000	43.581390 
4218.000000	43.604278 
4216.000000	43.649291 
4214.000000	43.712615 
4212.000000	43.766021 
4210.000000	43.804931 
4208.000000	43.829345 
4206.000000	43.854522 
4204.000000	43.912506 
4202.000000	43.981170 
4200.000000	44.029998 
4198.000000	44.078063 
4196.000000	44.118499 
4194.000000	44.161987 
4192.000000	44.216918 
4190.000000	44.271850 
4188.000000	44.319915 
4186.000000	44.378662 
4184.000000	44.429779 
4182.000000	44.463348 
4180.000000	44.522857 
4178.000000	44.595336 
4176.000000	44.653320 
4174.000000	44.689941 
4172.000000	44.724273 
4170.000000	44.780731 
4168.000000	44.837188 
4166.000000	44.882965 
4164.000000	44.931793 
4162.000000	44.972229 
4160.000000	44.993591 
4158.000000	45.038604 
4156.000000	45.090484 
4154.000000	45.140838 
4152.000000	45.185089 
4150.000000	45.236206 
4148.000000	45.292663 
4146.000000	45.342254 
4144.000000	45.372009 
4142.000000	45.386505 
4140.000000	45.377349 
4138.000000	45.405578 
4136.000000	45.431518 
4134.000000	45.443725 
4132.000000	45.543670 
4130.000000	45.664215 
4128.000000	45.738983 
4126.000000	45.783233 
4124.000000	45.820617 
4122.000000	45.858001 
4120.000000	45.905303 
4118.000000	45.961761 
4116.000000	46.008300 
4114.000000	46.046447 
4112.000000	46.076202 
4110.000000	46.066284 
4108.000000	45.898437 
4106.000000	45.739746 
4104.000000	45.876312 
4102.000000	46.116638 
4100.000000	46.264648 
4098.000000	46.325683 
4096.000000	46.355438 
4094.000000	46.387481 
4092.000000	46.406555 
4090.000000	46.319580 
4088.000000	46.236419 
4086.000000	46.331787 
4084.000000	46.466064 
4082.000000	46.438598 
4080.000000	46.360778 
4078.000000	46.464538 
4076.000000	46.603393 
4074.000000	46.685028 
4072.000000	46.782684 
4070.000000	46.864318 
4068.000000	46.910858 
4066.000000	46.942138 
4064.000000	46.930694 
4062.000000	46.839141 
4060.000000	46.818542 
4058.000000	46.943664 
4056.000000	47.065734 
4054.000000	47.102355 
4052.000000	47.116088 
4050.000000	47.167968 
4048.000000	47.058868 
4046.000000	46.620941 
4044.000000	46.498870 
4042.000000	46.865844 
4040.000000	47.175598 
4038.000000	47.303009 
4036.000000	47.328948 
4034.000000	47.312164 
4032.000000	47.266387 
4030.000000	47.249603 
4028.000000	47.148895 
4026.000000	46.952819 
4024.000000	47.045898 
4022.000000	47.177886 
4020.000000	47.074127 
4018.000000	47.103118 
4016.000000	47.264862 
4014.000000	47.366333 
4012.000000	47.318267 
4010.000000	47.000885 
4008.000000	46.897888 
4006.000000	47.224426 
4004.000000	47.498321 
4002.000000	47.641754 
4000.000000	47.771453 
3998.000000	47.679901 
3996.000000	47.296905 
3994.000000	47.090911 
3992.000000	46.898651 
3990.000000	46.952056 
3988.000000	47.454833 
3986.000000	47.733306 
3984.000000	47.605895 
3982.000000	47.436523 
3980.000000	47.533416 
3978.000000	47.299194 
3976.000000	46.616363 
3974.000000	46.292114 
3972.000000	46.503448 
3970.000000	46.841430 
3968.000000	47.359466 
3966.000000	47.711944 
3964.000000	47.074127 
3962.000000	46.270751 
3960.000000	46.374511 
3958.000000	46.713256 
3956.000000	46.936798 
3954.000000	46.787261 
3952.000000	45.415496 
3950.000000	43.274688 
3948.000000	42.975616 
3946.000000	43.794250 
3944.000000	42.855834 
3942.000000	43.135833 
3940.000000	45.458984 
3938.000000	47.087860 
3936.000000	46.726989 
3934.000000	43.476104 
3932.000000	40.839385 
3930.000000	41.772460 
3928.000000	43.631744 
3926.000000	42.459106 
3924.000000	41.727447 
3922.000000	42.502593 
3920.000000	41.481781 
3918.000000	39.990997 
3916.000000	41.682434 
3914.000000	45.740509 
3912.000000	48.174285 
3910.000000	48.577880 
3908.000000	45.311737 
3906.000000	37.739562 
3904.000000	31.327819 
3902.000000	29.499816 
3900.000000	31.225585 
3898.000000	36.882781 
3896.000000	42.327117 
3894.000000	41.078186 
3892.000000	37.277984 
3890.000000	38.958740 
3888.000000	39.223480 
3886.000000	35.710144 
3884.000000	35.567474 
3882.000000	34.723663 
3880.000000	35.741424 
3878.000000	40.712738 
3876.000000	40.278625 
3874.000000	36.334228 
3872.000000	32.337951 
3870.000000	29.579162 
3868.000000	32.567596 
3866.000000	32.955932 
3864.000000	32.212066 
3862.000000	35.517120 
3860.000000	39.809417 
3858.000000	38.539886 
3856.000000	29.814147 
3854.000000	20.946502 
3852.000000	22.852325 
3850.000000	33.325958 
3848.000000	41.838836 
3846.000000	42.621612 
3844.000000	38.282775 
3842.000000	33.169555 
3840.000000	27.954101 
3838.000000	25.898742 
3836.000000	28.916931 
3834.000000	33.054351 
3832.000000	36.219787 
3830.000000	39.565277 
3828.000000	39.948272 
3826.000000	39.517974 
3824.000000	36.418914 
3822.000000	29.020690 
3820.000000	28.173065 
3818.000000	30.273437 
3816.000000	31.688690 
3814.000000	38.932037 
3812.000000	45.641326 
3810.000000	44.950866 
3808.000000	38.429260 
3806.000000	35.823822 
3804.000000	33.679199 
3802.000000	29.046630 
3800.000000	30.990600 
3798.000000	35.089874 
3796.000000	38.987731 
3794.000000	44.949340 
3792.000000	48.907470 
3790.000000	49.922180 
3788.000000	48.696136 
3786.000000	45.843505 
3784.000000	45.163726 
3782.000000	44.297027 
3780.000000	41.518402 
3778.000000	43.213653 
3776.000000	47.585296 
3774.000000	48.811340 
3772.000000	44.177246 
3770.000000	39.216613 
3768.000000	39.073944 
3766.000000	39.833831 
3764.000000	42.591857 
3762.000000	42.166137 
3760.000000	37.630462 
3758.000000	36.185455 
3756.000000	36.705780 
3754.000000	31.902313 
3752.000000	23.605346 
3750.000000	21.109771 
3748.000000	23.708343 
3746.000000	22.911834 
3744.000000	23.220062 
3742.000000	29.312896 
3740.000000	32.598114 
3738.000000	28.395080 
3736.000000	22.412872 
3734.000000	21.900939 
3732.000000	27.484893 
3730.000000	34.799957 
3728.000000	36.443328 
3726.000000	34.582519 
3724.000000	33.773803 
3722.000000	35.115051 
3720.000000	38.427734 
3718.000000	42.176818 
3716.000000	43.021392 
3714.000000	36.742401 
3712.000000	29.125976 
3710.000000	29.469299 
3708.000000	36.756134 
3706.000000	42.978668 
3704.000000	42.701721 
3702.000000	40.100097 
3700.000000	42.348480 
3698.000000	45.668792 
3696.000000	46.300506 
3694.000000	43.383026 
3692.000000	35.510253 
3690.000000	28.488159 
3688.000000	30.369567 
3686.000000	39.210510 
3684.000000	45.860290 
3682.000000	46.213531 
3680.000000	41.661834 
3678.000000	33.016967 
3676.000000	25.155639 
3674.000000	27.057647 
3672.000000	29.123687 
3670.000000	28.656768 
3668.000000	35.575103 
3666.000000	45.104217 
3664.000000	49.858856 
3662.000000	50.630187 
3660.000000	49.004364 
3658.000000	43.572998 
3656.000000	39.952087 
3654.000000	40.170288 
3652.000000	32.962036 
3650.000000	23.372650 
3648.000000	22.808074 
3646.000000	32.069396 
3644.000000	41.786956 
3642.000000	45.970916 
3640.000000	47.317504 
3638.000000	47.407531 
3636.000000	45.890808 
3634.000000	43.168640 
3632.000000	37.973785 
3630.000000	29.248046 
3628.000000	28.157043 
3626.000000	36.660003 
3624.000000	42.945861 
3622.000000	40.538787 
3620.000000	34.110260 
3618.000000	32.951354 
3616.000000	34.890747 
3614.000000	34.681701 
3612.000000	35.311126 
3610.000000	35.216522 
3608.000000	35.647583 
3606.000000	40.412902 
3604.000000	44.226837 
3602.000000	43.135833 
3600.000000	41.412353 
3598.000000	40.874481 
3596.000000	39.692687 
3594.000000	40.177154 
3592.000000	42.429351 
3590.000000	39.639282 
3588.000000	34.009552 
3586.000000	35.755157 
3584.000000	42.317962 
3582.000000	46.076202 
3580.000000	46.850585 
3578.000000	46.968841 
3576.000000	47.125244 
3574.000000	47.644042 
3572.000000	47.276306 
3570.000000	41.976928 
3568.000000	33.797454 
3566.000000	32.476806 
3564.000000	38.181304 
3562.000000	43.066406 
3560.000000	45.582580 
3558.000000	47.540283 
3556.000000	47.993469 
3554.000000	45.867156 
3552.000000	44.577026 
3550.000000	45.133972 
3548.000000	43.139648 
3546.000000	40.811157 
3544.000000	42.385101 
3542.000000	46.243286 
3540.000000	48.391723 
3538.000000	47.856903 
3536.000000	47.225189 
3534.000000	48.058319 
3532.000000	47.615051 
3530.000000	45.236968 
3528.000000	43.218994 
3526.000000	42.642211 
3524.000000	42.758941 
3522.000000	44.457244 
3520.000000	46.686553 
3518.000000	47.854614 
3516.000000	48.409271 
3514.000000	48.271179 
3512.000000	46.884155 
3510.000000	45.346069 
3508.000000	45.747375 
3506.000000	45.580291 
3504.000000	43.553924 
3502.000000	43.512725 
3500.000000	45.624542 
3498.000000	46.562957 
3496.000000	46.544647 
3494.000000	47.068786 
3492.000000	47.491455 
3490.000000	46.959686 
3488.000000	46.238708 
3486.000000	46.255493 
3484.000000	45.742797 
3482.000000	44.799804 
3480.000000	45.411682 
3478.000000	46.612548 
3476.000000	46.815490 
3474.000000	46.783447 
3472.000000	47.062683 
3470.000000	47.108459 
3468.000000	46.828460 
3466.000000	46.658325 
3464.000000	46.406555 
3462.000000	46.144866 
3460.000000	46.458435 
3458.000000	46.963500 
3456.000000	47.279357 
3454.000000	47.495269 
3452.000000	47.583007 
3450.000000	46.738433 
3448.000000	44.859313 
3446.000000	44.595336 
3444.000000	45.473480 
3442.000000	46.151733 
3440.000000	46.874237 
3438.000000	47.286987 
3436.000000	47.512817 
3434.000000	47.655487 
3432.000000	47.657012 
3430.000000	47.783660 
3428.000000	48.042297 
3426.000000	48.258209 
3424.000000	47.917175 
3422.000000	47.019195 
3420.000000	46.957397 
3418.000000	48.017883 
3416.000000	48.809051 
3414.000000	49.025726 
3412.000000	49.154663 
3410.000000	49.300384 
3408.000000	49.410247 
3406.000000	49.421691 
3404.000000	49.307250 
3402.000000	49.274444 
3400.000000	49.222564 
3398.000000	48.993682 
3396.000000	48.994445 
3394.000000	48.821258 
3392.000000	48.908233 
3390.000000	49.598693 
3388.000000	49.942016 
3386.000000	49.713134 
3384.000000	49.672698 
3382.000000	50.023651 
3380.000000	50.291442 
3378.000000	50.418853 
3376.000000	50.511932 
3374.000000	50.588989 
3372.000000	50.608062 
3370.000000	50.415802 
3368.000000	50.024414 
3366.000000	49.788665 
3364.000000	49.898529 
3362.000000	50.086975 
3360.000000	50.313568 
3358.000000	50.440979 
3356.000000	50.464630 
3354.000000	50.685119 
3352.000000	50.939178 
3350.000000	51.054382 
3348.000000	51.117706 
3346.000000	51.178741 
3344.000000	51.206970 
3342.000000	51.196289 
3340.000000	51.108551 
3338.000000	50.787353 
3336.000000	50.610351 
3334.000000	50.908660 
3332.000000	51.272583 
3330.000000	51.351928 
3328.000000	51.210021 
3326.000000	51.129150 
3324.000000	51.243591 
3322.000000	51.451110 
3320.000000	51.581573 
3318.000000	51.618957 
3316.000000	51.568603 
3314.000000	51.383209 
3312.000000	51.197814 
3310.000000	51.019287 
3308.000000	51.137542 
3306.000000	51.583099 
3304.000000	51.853179 
3302.000000	51.937103 
3300.000000	51.893615 
3298.000000	51.795196 
3296.000000	51.808929 
3294.000000	51.688385 
3292.000000	51.544952 
3290.000000	51.677703 
3288.000000	51.961517 
3286.000000	52.122497 
3284.000000	52.095031 
3282.000000	52.101898 
3280.000000	52.117919 
3278.000000	51.913452 
3276.000000	51.586151 
3274.000000	51.506042 
3272.000000	51.892852 
3270.000000	52.361297 
3268.000000	52.567291 
3266.000000	52.553558 
3264.000000	52.549743 
3262.000000	52.574157 
3260.000000	52.534484 
3258.000000	52.436065 
3256.000000	52.252960 
3254.000000	52.241516 
3252.000000	52.576446 
3250.000000	52.868652 
3248.000000	52.738952 
3246.000000	52.273559 
3244.000000	52.220153 
3242.000000	52.575683 
3240.000000	52.758026 
3238.000000	52.754974 
3236.000000	52.741241 
3234.000000	52.729034 
3232.000000	52.680969 
3230.000000	52.642059 
3228.000000	52.695465 
3226.000000	52.906036 
3224.000000	53.048706 
3222.000000	52.855682 
3220.000000	52.571868 
3218.000000	52.667236 
3216.000000	52.700805 
3214.000000	52.613067 
3212.000000	52.740478 
3210.000000	52.785491 
3208.000000	53.029632 
3206.000000	53.356933 
3204.000000	53.489685 
3202.000000	53.489685 
3200.000000	53.250122 
3198.000000	52.975463 
3196.000000	53.170776 
3194.000000	53.581237 
3192.000000	53.789520 
3190.000000	53.873443 
3188.000000	53.844451 
3186.000000	53.681182 
3184.000000	53.714752 
3182.000000	53.894805 
3180.000000	53.712463 
3178.000000	53.498077 
3176.000000	53.802490 
3174.000000	54.154968 
3172.000000	54.296875 
3170.000000	54.309844 
3168.000000	54.339599 
3166.000000	54.407501 
3164.000000	54.483795 
3162.000000	54.545593 
3160.000000	54.607391 
3158.000000	54.642486 
3156.000000	54.672241 
3154.000000	54.669952 
3152.000000	54.673767 
3150.000000	54.736328 
3148.000000	54.817962 
3146.000000	54.853057 
3144.000000	54.846954 
3142.000000	54.849243 
3140.000000	54.890441 
3138.000000	54.944610 
3136.000000	54.815673 
3134.000000	54.435729 
3132.000000	54.431915 
3130.000000	54.734802 
3128.000000	54.682159 
3126.000000	54.500579 
3124.000000	54.277801 
3122.000000	54.158020 
3120.000000	54.181671 
3118.000000	54.092407 
3116.000000	54.082489 
3114.000000	54.373168 
3112.000000	54.674530 
3110.000000	54.778289 
3108.000000	54.828643 
3106.000000	54.928588 
3104.000000	54.782867 
3102.000000	54.386901 
3100.000000	54.367828 
3098.000000	54.569244 
3096.000000	54.594421 
3094.000000	54.888916 
3092.000000	55.303955 
3090.000000	55.471801 
3088.000000	55.480194 
3086.000000	55.480194 
3084.000000	55.376434 
3082.000000	55.075836 
3080.000000	54.865264 
3078.000000	55.049896 
3076.000000	55.444335 
3074.000000	55.663299 
3072.000000	55.687713 
3070.000000	55.533599 
3068.000000	55.081939 
3066.000000	54.636383 
3064.000000	54.717254 
3062.000000	55.147552 
3060.000000	55.333709 
3058.000000	55.132293 
3056.000000	55.006408 
3054.000000	55.329132 
3052.000000	55.526733 
3050.000000	55.359649 
3048.000000	55.311584 
3046.000000	55.524444 
3044.000000	55.628967 
3042.000000	55.619049 
3040.000000	55.580139 
3038.000000	55.451202 
3036.000000	55.108642 
3034.000000	54.594421 
3032.000000	54.164886 
3030.000000	54.310607 
3028.000000	54.620361 
3026.000000	54.495239 
3024.000000	54.230499 
3022.000000	54.016113 
3020.000000	53.823089 
3018.000000	53.620147 
3016.000000	53.471374 
3014.000000	53.447723 
3012.000000	53.687286 
3010.000000	54.321289 
3008.000000	54.977416 
3006.000000	55.230712 
3004.000000	55.328369 
3002.000000	55.570983 
3000.000000	55.759429 
2998.000000	55.804443 
2996.000000	55.696868 
2994.000000	55.608367 
2992.000000	55.695343 
2990.000000	55.757904 
2988.000000	55.706787 
2986.000000	55.726623 
2984.000000	55.738067 
2982.000000	55.625915 
2980.000000	55.477905 
2978.000000	55.353546 
2976.000000	55.165100 
2974.000000	54.914093 
2972.000000	54.711914 
2970.000000	54.463195 
2968.000000	54.081726 
2966.000000	53.688812 
2964.000000	53.368377 
2962.000000	53.093719 
2960.000000	52.887725 
2958.000000	52.732849 
2956.000000	52.591705 
2954.000000	52.488708 
2952.000000	52.441406 
2950.000000	52.362060 
2948.000000	52.165222 
2946.000000	51.852416 
2944.000000	51.416778 
2942.000000	50.828552 
2940.000000	50.124359 
2938.000000	49.374389 
2936.000000	48.688507 
2934.000000	48.122406 
2932.000000	47.647857 
2930.000000	47.180175 
2928.000000	46.740722 
2926.000000	46.478271 
2924.000000	46.558380 
2922.000000	47.062683 
2920.000000	47.918701 
2918.000000	48.938751 
2916.000000	49.941253 
2914.000000	50.816345 
2912.000000	51.524353 
2910.000000	52.085876 
2908.000000	52.532958 
2906.000000	52.881622 
2904.000000	53.171539 
2902.000000	53.429412 
2900.000000	53.647613 
2898.000000	53.849029 
2896.000000	54.029846 
2894.000000	54.206848 
2892.000000	54.401397 
2890.000000	54.605865 
2888.000000	54.788970 
2886.000000	54.932403 
2884.000000	55.039978 
2882.000000	55.104064 
2880.000000	55.104064 
2878.000000	55.038452 
2876.000000	54.880523 
2874.000000	54.605865 
2872.000000	54.225158 
2870.000000	53.711700 
2868.000000	52.989959 
2866.000000	52.098083 
2864.000000	51.209259 
2862.000000	50.563812 
2860.000000	50.360107 
2858.000000	50.616455 
2856.000000	51.164245 
2854.000000	51.823425 
2852.000000	52.513122 
2850.000000	53.192901 
2848.000000	53.830718 
2846.000000	54.393005 
2844.000000	54.869842 
2842.000000	55.254364 
2840.000000	55.553436 
2838.000000	55.800628 
2836.000000	56.016540 
2834.000000	56.188964 
2832.000000	56.333923 
2830.000000	56.451416 
2828.000000	56.558990 
2826.000000	56.650543 
2824.000000	56.721496 
2822.000000	56.778717 
2820.000000	56.829833 
2818.000000	56.874084 
2816.000000	56.912231 
2814.000000	56.932830 
2812.000000	56.934356 
2810.000000	56.932830 
2808.000000	56.941223 
2806.000000	56.948089 
2804.000000	56.935882 
2802.000000	56.914520 
2800.000000	56.896972 
2798.000000	56.877899 
2796.000000	56.853485 
2794.000000	56.833648 
2792.000000	56.803131 
2790.000000	56.781768 
2788.000000	56.793975 
2786.000000	56.832122 
2784.000000	56.880187 
2782.000000	56.932067 
2780.000000	56.974792 
2778.000000	57.009887 
2776.000000	57.033538 
2774.000000	57.051849 
2772.000000	57.069396 
2770.000000	57.099151 
2768.000000	57.124328 
2766.000000	57.135009 
2764.000000	57.145690 
2762.000000	57.162475 
2760.000000	57.178497 
2758.000000	57.194519 
2756.000000	57.209777 
2754.000000	57.224273 
2752.000000	57.234954 
2750.000000	57.237243 
2748.000000	57.238006 
2746.000000	57.247924 
2744.000000	57.266998 
2742.000000	57.277679 
2740.000000	57.276916 
2738.000000	57.279968 
2736.000000	57.299041 
2734.000000	57.313537 
2732.000000	57.321929 
2730.000000	57.317352 
2728.000000	57.304382 
2726.000000	57.289123 
2724.000000	57.277679 
2722.000000	57.263946 
2720.000000	57.254028 
2718.000000	57.238006 
2716.000000	57.228088 
2714.000000	57.213592 
2712.000000	57.184600 
2710.000000	57.149505 
2708.000000	57.117462 
2706.000000	57.087707 
2704.000000	57.054138 
2702.000000	57.020568 
2700.000000	57.003784 
2698.000000	57.001495 
2696.000000	56.999969 
2694.000000	56.998443 
2692.000000	56.993865 
2690.000000	56.983947 
2688.000000	56.977081 
2686.000000	56.973266 
2684.000000	56.961822 
2682.000000	56.947326 
2680.000000	56.928253 
2678.000000	56.920623 
2676.000000	56.913757 
2674.000000	56.905364 
2672.000000	56.894683 
2670.000000	56.888580 
2668.000000	56.874084 
2666.000000	56.866455 
2664.000000	56.861114 
2662.000000	56.859588 
2660.000000	56.848144 
2658.000000	56.838226 
2656.000000	56.844329 
2654.000000	56.861877 
2652.000000	56.873321 
2650.000000	56.887054 
2648.000000	56.908416 
2646.000000	56.922912 
2644.000000	56.932067 
2642.000000	56.943511 
2640.000000	56.960296 
2638.000000	56.976318 
2636.000000	56.989288 
2634.000000	56.995391 
2632.000000	57.005310 
2630.000000	57.006072 
2628.000000	57.003021 
2626.000000	56.996917 
2624.000000	56.994628 
2622.000000	56.986999 
2620.000000	56.981658 
2618.000000	56.971740 
2616.000000	56.961059 
2614.000000	56.935119 
2612.000000	56.916046 
2610.000000	56.897735 
2608.000000	56.867980 
2606.000000	56.828308 
2604.000000	56.783294 
2602.000000	56.729888 
2600.000000	56.677246 
2598.000000	56.622314 
2596.000000	56.561279 
2594.000000	56.499481 
2592.000000	56.453704 
2590.000000	56.426239 
2588.000000	56.416320 
2586.000000	56.423187 
2584.000000	56.439971 
2582.000000	56.472015 
2580.000000	56.502532 
2578.000000	56.528472 
2576.000000	56.549072 
2574.000000	56.571197 
2572.000000	56.578826 
2570.000000	56.584167 
2568.000000	56.594085 
2566.000000	56.604766 
2564.000000	56.604766 
2562.000000	56.610870 
2560.000000	56.612396 
2558.000000	56.620788 
2556.000000	56.625366 
2554.000000	56.629943 
2552.000000	56.635284 
2550.000000	56.646728 
2548.000000	56.654357 
2546.000000	56.665039 
2544.000000	56.674957 
2542.000000	56.678009 
2540.000000	56.680297 
2538.000000	56.695556 
2536.000000	56.711578 
2534.000000	56.728363 
2532.000000	56.739807 
2530.000000	56.748962 
2528.000000	56.757354 
2526.000000	56.753540 
2524.000000	56.755065 
2522.000000	56.756591 
2520.000000	56.757354 
2518.000000	56.743621 
2516.000000	56.737518 
2514.000000	56.726074 
2512.000000	56.716918 
2510.000000	56.700134 
2508.000000	56.681060 
2506.000000	56.656646 
2504.000000	56.638336 
2502.000000	56.617736 
2500.000000	56.601715 
2498.000000	56.574249 
2496.000000	56.543731 
2494.000000	56.515502 
2492.000000	56.489562 
2490.000000	56.462097 
2488.000000	56.439971 
2486.000000	56.411743 
2484.000000	56.391143 
2482.000000	56.375122 
2480.000000	56.353759 
2478.000000	56.329345 
2476.000000	56.297302 
2474.000000	56.274414 
2472.000000	56.252288 
2470.000000	56.233215 
2468.000000	56.216430 
2466.000000	56.206512 
2464.000000	56.194305 
2462.000000	56.182861 
2460.000000	56.166839 
2458.000000	56.161499 
2456.000000	56.152343 
2454.000000	56.159973 
2452.000000	56.163024 
2450.000000	56.159973 
2448.000000	56.153106 
2446.000000	56.159973 
2444.000000	56.159973 
2442.000000	56.169891 
2440.000000	56.175994 
2438.000000	56.174468 
2436.000000	56.171417 
2434.000000	56.177520 
2432.000000	56.181335 
2430.000000	56.182098 
2428.000000	56.181335 
2426.000000	56.176757 
2424.000000	56.169128 
2422.000000	56.164550 
2420.000000	56.165313 
2418.000000	56.156921 
2416.000000	56.149291 
2414.000000	56.139373 
2412.000000	56.132507 
2410.000000	56.106567 
2408.000000	56.089019 
2406.000000	56.062316 
2404.000000	56.040191 
2402.000000	56.005096 
2400.000000	55.983734 
2398.000000	55.956268 
2396.000000	55.929565 
2394.000000	55.879211 
2392.000000	55.799102 
2390.000000	55.596160 
2388.000000	55.108642 
2386.000000	53.971862 
2384.000000	51.745605 
2382.000000	48.127746 
2380.000000	43.306732 
2378.000000	37.906646 
2376.000000	32.581329 
2374.000000	27.721405 
2372.000000	23.493194 
2370.000000	19.965362 
2368.000000	17.153930 
2366.000000	15.047454 
2364.000000	13.607788 
2362.000000	12.826538 
2360.000000	12.628173 
2358.000000	13.143157 
2356.000000	14.551544 
2354.000000	17.186737 
2352.000000	21.612548 
2350.000000	27.026367 
2348.000000	27.937316 
2346.000000	23.553466 
2344.000000	19.979095 
2342.000000	18.800354 
2340.000000	18.676757 
2338.000000	18.991851 
2336.000000	19.490051 
2334.000000	19.932556 
2332.000000	20.132446 
2330.000000	20.701599 
2328.000000	21.978759 
2326.000000	23.335266 
2324.000000	24.393463 
2322.000000	25.705718 
2320.000000	27.796936 
2318.000000	30.473327 
2316.000000	32.959747 
2314.000000	34.773254 
2312.000000	36.419677 
2310.000000	38.385009 
2308.000000	40.538787 
2306.000000	42.678070 
2304.000000	44.584655 
2302.000000	46.071624 
2300.000000	47.289276 
2298.000000	48.374176 
2296.000000	49.333190 
2294.000000	50.207519 
2292.000000	51.033020 
2290.000000	51.794433 
2288.000000	52.521514 
2286.000000	53.202056 
2284.000000	53.704833 
2282.000000	53.811645 
2280.000000	53.620910 
2278.000000	53.391265 
2276.000000	53.216552 
2274.000000	53.098297 
2272.000000	53.041076 
2270.000000	53.027343 
2268.000000	53.043365 
2266.000000	53.094482 
2264.000000	53.182220 
2262.000000	53.288269 
2260.000000	53.400421 
2258.000000	53.513336 
2256.000000	53.629302 
2254.000000	53.758239 
2252.000000	53.880310 
2250.000000	53.993988 
2248.000000	54.088592 
2246.000000	54.180145 
2244.000000	54.251098 
2242.000000	54.314422 
2240.000000	54.370117 
2238.000000	54.430389 
2236.000000	54.472351 
2234.000000	54.512786 
2232.000000	54.547882 
2230.000000	54.584503 
2228.000000	54.609680 
2226.000000	54.641723 
2224.000000	54.663085 
2222.000000	54.679107 
2220.000000	54.679870 
2218.000000	54.679870 
2216.000000	54.675292 
2214.000000	54.666900 
2212.000000	54.655456 
2210.000000	54.659271 
2208.000000	54.660034 
2206.000000	54.640197 
2204.000000	54.628753 
2202.000000	54.624938 
2200.000000	54.624176 
2198.000000	54.611968 
2196.000000	54.593658 
2194.000000	54.567718 
2192.000000	54.555511 
2190.000000	54.522705 
2188.000000	54.479980 
2186.000000	54.438781 
2184.000000	54.430389 
2182.000000	54.407501 
2180.000000	54.392242 
2178.000000	54.367065 
2176.000000	54.352569 
2174.000000	54.325866 
2172.000000	54.296112 
2170.000000	54.258728 
2168.000000	54.243469 
2166.000000	54.219055 
2164.000000	54.167175 
2162.000000	54.111480 
2160.000000	54.126739 
2158.000000	54.157257 
2156.000000	54.154968 
2154.000000	54.140472 
2152.000000	54.130554 
2150.000000	54.134368 
2148.000000	54.119873 
2146.000000	54.103851 
2144.000000	54.129791 
2142.000000	54.157257 
2140.000000	54.109954 
2138.000000	54.034423 
2136.000000	54.005432 
2134.000000	54.134368 
2132.000000	54.221343 
2130.000000	54.254913 
2128.000000	54.261779 
2126.000000	54.276275 
2124.000000	54.273223 
2122.000000	54.305267 
2120.000000	54.327392 
2118.000000	54.325103 
2116.000000	54.209136 
2114.000000	54.202270 
2112.000000	54.354095 
2110.000000	54.434967 
2108.000000	54.436492 
2106.000000	54.454040 
2104.000000	54.486083 
2102.000000	54.492950 
2100.000000	54.476928 
2098.000000	54.469299 
2096.000000	54.484558 
2094.000000	54.485321 
2092.000000	54.265594 
2090.000000	53.979492 
2088.000000	54.124450 
2086.000000	54.370880 
2084.000000	54.468536 
2082.000000	54.444122 
2080.000000	54.399871 
2078.000000	54.325866 
2076.000000	54.312896 
2074.000000	54.274749 
2072.000000	54.325103 
2070.000000	54.342651 
2068.000000	54.093170 
2066.000000	53.285980 
2064.000000	53.191375 
2062.000000	53.861236 
2060.000000	54.118347 
2058.000000	54.224395 
2056.000000	54.299926 
2054.000000	54.295349 
2052.000000	54.293823 
2050.000000	54.289245 
2048.000000	54.246520 
2046.000000	54.154968 
2044.000000	53.820800 
2042.000000	53.292083 
2040.000000	53.474426 
2038.000000	54.079437 
2036.000000	54.277038 
2034.000000	54.317474 
2032.000000	54.347229 
2030.000000	54.360961 
2028.000000	54.288482 
2026.000000	54.245758 
2024.000000	54.179382 
2022.000000	54.148864 
2020.000000	53.549957 
2018.000000	52.194213 
2016.000000	52.302551 
2014.000000	53.843688 
2012.000000	54.408264 
2010.000000	54.353332 
2008.000000	54.244232 
2006.000000	54.386901 
2004.000000	54.515075 
2002.000000	54.511260 
2000.000000	54.319763 
1998.000000	54.309844 
1996.000000	54.264068 
1994.000000	52.352142 
1992.000000	50.283050 
1990.000000	51.234436 
1988.000000	52.790069 
1986.000000	53.802490 
1984.000000	54.357910 
1982.000000	54.383850 
1980.000000	54.352569 
1978.000000	54.317474 
1976.000000	54.264831 
1974.000000	54.251098 
1972.000000	54.238891 
1970.000000	53.409576 
1968.000000	51.092529 
1966.000000	50.973510 
1964.000000	53.076171 
1962.000000	53.681182 
1960.000000	53.712463 
1958.000000	53.710174 
1956.000000	53.375244 
1954.000000	53.339385 
1952.000000	53.784942 
1950.000000	53.775024 
1948.000000	53.156280 
1946.000000	51.638031 
1944.000000	48.644256 
1942.000000	47.591400 
1940.000000	51.151275 
1938.000000	53.605651 
1936.000000	53.721618 
1934.000000	53.532409 
1932.000000	53.544616 
1930.000000	53.749084 
1928.000000	53.847503 
1926.000000	52.947235 
1924.000000	49.398040 
1922.000000	48.389434 
1920.000000	48.651885 
1918.000000	46.829986 
1916.000000	49.786376 
1914.000000	52.993011 
1912.000000	52.367401 
1910.000000	50.077056 
1908.000000	50.292968 
1906.000000	52.220916 
1904.000000	53.083038 
1902.000000	53.287506 
1900.000000	53.491210 
1898.000000	52.784729 
1896.000000	50.807952 
1894.000000	50.699615 
1892.000000	50.551605 
1890.000000	47.563934 
1888.000000	48.693084 
1886.000000	51.783752 
1884.000000	52.450561 
1882.000000	52.943420 
1880.000000	53.087615 
1878.000000	53.054046 
1876.000000	53.193664 
1874.000000	53.100585 
1872.000000	50.089263 
1870.000000	42.086791 
1868.000000	39.070892 
1866.000000	45.268249 
1864.000000	50.917053 
1862.000000	52.050018 
1860.000000	51.792907 
1858.000000	51.972961 
1856.000000	52.630615 
1854.000000	52.837371 
1852.000000	52.668762 
1850.000000	51.098632 
1848.000000	47.585296 
1846.000000	41.740417 
1844.000000	37.708282 
1842.000000	43.979644 
1840.000000	50.273132 
1838.000000	50.000000 
1836.000000	49.932861 
1834.000000	50.687408 
1832.000000	45.950317 
1830.000000	39.452362 
1828.000000	41.272735 
1826.000000	43.117523 
1824.000000	44.480895 
1822.000000	49.459838 
1820.000000	51.644897 
1818.000000	50.996398 
1816.000000	51.229858 
1814.000000	50.692749 
1812.000000	46.753692 
1810.000000	45.431518 
1808.000000	48.138427 
1806.000000	50.169372 
1804.000000	48.464965 
1802.000000	43.357849 
1800.000000	41.342926 
1798.000000	43.963623 
1796.000000	44.259643 
1794.000000	38.859558 
1792.000000	34.197235 
1790.000000	40.753936 
1788.000000	48.228454 
1786.000000	47.498321 
1784.000000	45.924377 
1782.000000	44.811248 
1780.000000	43.697357 
1778.000000	45.718383 
1776.000000	43.942260 
1774.000000	35.231781 
1772.000000	29.452514 
1770.000000	33.885192 
1768.000000	39.798736 
1766.000000	45.536804 
1764.000000	45.121765 
1762.000000	39.649963 
1760.000000	41.236114 
1758.000000	41.736602 
1756.000000	42.018890 
1754.000000	43.483734 
1752.000000	35.727691 
1750.000000	29.504394 
1748.000000	30.877685 
1746.000000	35.528564 
1744.000000	36.983489 
1742.000000	36.469268 
1740.000000	34.799194 
1738.000000	36.850738 
1736.000000	32.831573 
1734.000000	23.768615 
1732.000000	28.942871 
1730.000000	37.330627 
1728.000000	43.853759 
1726.000000	47.140502 
1724.000000	45.544433 
1722.000000	44.234466 
1720.000000	36.231231 
1718.000000	23.841094 
1716.000000	22.820281 
1714.000000	31.692504 
1712.000000	40.457916 
1710.000000	42.951202 
1708.000000	38.804626 
1706.000000	32.077789 
1704.000000	31.721496 
1702.000000	26.565551 
1700.000000	19.522094 
1698.000000	21.580505 
1696.000000	23.261260 
1694.000000	33.406066 
1692.000000	41.762542 
1690.000000	38.992309 
1688.000000	35.575103 
1686.000000	26.768493 
1684.000000	18.387603 
1682.000000	26.380157 
1680.000000	36.066436 
1678.000000	38.645935 
1676.000000	33.412933 
1674.000000	32.056427 
1672.000000	32.392120 
1670.000000	27.349090 
1668.000000	32.247161 
1666.000000	41.416931 
1664.000000	38.603973 
1662.000000	35.926055 
1660.000000	41.955566 
1658.000000	43.968200 
1656.000000	33.471679 
1654.000000	17.150878 
1652.000000	18.235015 
1650.000000	28.634643 
1648.000000	24.369812 
1646.000000	23.578643 
1644.000000	35.277557 
1642.000000	42.636871 
1640.000000	41.159057 
1638.000000	32.027435 
1636.000000	22.357177 
1634.000000	29.386901 
1632.000000	41.719055 
1630.000000	42.593383 
1628.000000	38.114929 
1626.000000	36.843872 
1624.000000	33.036041 
1622.000000	34.335327 
1620.000000	38.737487 
1618.000000	31.829833 
1616.000000	28.510284 
1614.000000	37.232971 
1612.000000	41.477203 
1610.000000	39.040374 
1608.000000	38.082122 
1606.000000	39.770507 
1604.000000	40.603637 
1602.000000	41.005706 
1600.000000	42.815399 
1598.000000	43.658447 
1596.000000	42.495727 
1594.000000	42.322540 
1592.000000	43.556213 
1590.000000	44.245147 
1588.000000	45.136260 
1586.000000	45.622253 
1584.000000	45.546722 
1582.000000	45.183563 
1580.000000	43.315124 
1578.000000	34.077453 
1576.000000	26.643371 
1574.000000	34.326934 
1572.000000	37.694549 
1570.000000	30.346679 
1568.000000	31.978607 
1566.000000	36.437225 
1564.000000	35.980224 
1562.000000	29.911041 
1560.000000	14.913940 
1558.000000	11.583709 
1556.000000	20.861053 
1554.000000	28.060913 
1552.000000	32.319641 
1550.000000	33.322143 
1548.000000	35.388183 
1546.000000	31.036376 
1544.000000	21.965789 
1542.000000	14.817810 
1540.000000	11.836242 
1538.000000	21.547698 
1536.000000	30.916595 
1534.000000	26.860809 
1532.000000	29.684448 
1530.000000	35.110473 
1528.000000	31.049346 
1526.000000	26.246643 
1524.000000	23.647308 
1522.000000	18.277740 
1520.000000	19.751739 
1518.000000	22.999572 
1516.000000	24.665832 
1514.000000	30.805969 
1512.000000	31.232452 
1510.000000	24.546813 
1508.000000	14.205169 
1506.000000	13.922882 
1504.000000	27.367401 
1502.000000	34.716033 
1500.000000	29.714202 
1498.000000	22.154235 
1496.000000	20.525360 
1494.000000	24.845123 
1492.000000	23.773956 
1490.000000	19.200134 
1488.000000	22.018432 
1486.000000	30.542755 
1484.000000	37.316894 
1482.000000	37.941741 
1480.000000	38.622283 
1478.000000	36.441802 
1476.000000	29.846954 
1474.000000	23.463439 
1472.000000	23.004150 
1470.000000	33.806610 
1468.000000	39.345550 
1466.000000	34.063720 
1464.000000	32.436370 
1462.000000	36.764526 
1460.000000	30.218505 
1458.000000	17.806243 
1456.000000	17.639160 
1454.000000	27.237701 
1452.000000	32.434844 
1450.000000	32.200622 
1448.000000	31.371307 
1446.000000	35.379028 
1444.000000	39.861297 
1442.000000	41.016387 
1440.000000	39.408874 
1438.000000	31.481933 
1436.000000	28.147888 
1434.000000	35.009765 
1432.000000	37.415313 
1430.000000	35.736083 
1428.000000	38.503265 
1426.000000	39.451599 
1424.000000	36.415863 
1422.000000	35.574340 
1420.000000	28.955841 
1418.000000	27.320098 
1416.000000	35.503387 
1414.000000	40.840148 
1412.000000	40.909576 
1410.000000	40.443420 
1408.000000	39.724731 
1406.000000	35.809326 
1404.000000	34.556579 
1402.000000	36.164855 
1400.000000	32.753753 
1398.000000	29.977416 
1396.000000	29.465484 
1394.000000	31.546020 
1392.000000	38.064575 
1390.000000	39.259338 
1388.000000	34.757232 
1386.000000	35.594940 
1384.000000	40.364837 
1382.000000	41.693878 
1380.000000	40.734100 
1378.000000	39.698791 
1376.000000	36.415863 
1374.000000	33.863067 
1372.000000	37.620544 
1370.000000	39.766693 
1368.000000	39.821624 
1366.000000	40.284729 
1364.000000	35.888671 
1362.000000	33.340454 
1360.000000	37.653350 
1358.000000	40.834808 
1356.000000	40.892028 
1354.000000	40.843963 
1352.000000	41.439056 
1350.000000	41.207885 
1348.000000	41.191101 
1346.000000	41.564941 
1344.000000	41.337585 
1342.000000	38.329315 
1340.000000	33.673858 
1338.000000	34.045410 
1336.000000	38.208007 
1334.000000	40.940093 
1332.000000	41.588592 
1330.000000	41.530609 
1328.000000	41.548156 
1326.000000	41.548156 
1324.000000	41.338348 
1322.000000	40.561676 
1320.000000	38.740539 
1318.000000	38.075256 
1316.000000	38.819122 
1314.000000	38.845825 
1312.000000	39.210510 
1310.000000	40.202331 
1308.000000	40.261077 
1306.000000	40.367889 
1304.000000	40.461730 
1302.000000	40.451049 
1300.000000	40.303802 
1298.000000	40.034484 
1296.000000	39.825439 
1294.000000	39.903259 
1292.000000	39.698791 
1290.000000	39.179992 
1288.000000	38.780975 
1286.000000	39.042663 
1284.000000	39.361572 
1282.000000	39.244842 
1280.000000	39.069366 
1278.000000	39.023590 
1276.000000	38.924407 
1274.000000	38.422393 
1272.000000	37.571716 
1270.000000	37.121582 
1268.000000	37.064361 
1266.000000	36.966705 
1264.000000	36.927032 
1262.000000	36.660003 
1260.000000	36.548614 
1258.000000	37.065887 
1256.000000	37.494659 
1254.000000	37.580871 
1252.000000	37.555694 
1250.000000	37.458038 
1248.000000	37.355804 
1246.000000	37.140655 
1244.000000	36.885833 
1242.000000	36.788177 
1240.000000	36.711883 
1238.000000	36.557006 
1236.000000	36.420440 
1234.000000	36.249542 
1232.000000	36.077117 
1230.000000	35.904693 
1228.000000	35.671997 
1226.000000	35.343933 
1224.000000	35.128021 
1222.000000	34.991455 
1220.000000	34.697723 
1218.000000	34.358215 
1216.000000	34.033966 
1214.000000	33.618927 
1212.000000	33.213043 
1210.000000	33.060455 
1208.000000	32.960510 
1206.000000	32.871246 
1204.000000	32.783508 
1202.000000	32.724761 
1200.000000	32.643890 
1198.000000	32.599639 
1196.000000	32.579040 
1194.000000	32.550048 
1192.000000	32.469940 
1190.000000	32.386016 
1188.000000	32.240295 
1186.000000	32.167816 
1184.000000	32.163238 
1182.000000	32.106781 
1180.000000	32.024383 
1178.000000	31.949615 
1176.000000	31.775665 
1174.000000	31.609344 
1172.000000	31.555938 
1170.000000	31.445312 
1168.000000	31.253051 
1166.000000	31.031799 
1164.000000	30.804443 
1162.000000	30.559539 
1160.000000	30.328369 
1158.000000	30.126190 
1156.000000	29.986572 
1154.000000	29.862213 
1152.000000	29.780578 
1150.000000	29.692077 
1148.000000	29.595184 
1146.000000	29.450988 
1144.000000	29.302215 
1142.000000	29.137420 
1140.000000	28.997039 
1138.000000	28.816986 
1136.000000	28.635406 
1134.000000	28.485107 
1132.000000	28.339385 
1130.000000	28.146362 
1128.000000	27.952575 
1126.000000	27.752685 
1124.000000	27.560424 
1122.000000	27.354431 
1120.000000	27.156829 
1118.000000	26.966094 
1116.000000	26.770782 
1114.000000	26.579284 
1112.000000	26.391601 
1110.000000	26.235961 
1108.000000	26.099395 
1106.000000	26.014709 
1104.000000	25.972747 
1102.000000	25.922393 
1100.000000	25.827026 
1098.000000	25.725555 
1096.000000	25.595855 
1094.000000	25.469207 
1092.000000	25.326538 
1090.000000	25.218200 
1088.000000	25.110626 
1086.000000	25.014495 
1084.000000	24.903106 
1082.000000	24.801635 
1080.000000	24.675750 
1078.000000	24.553680 
1076.000000	24.459075 
1074.000000	24.431610 
1072.000000	24.423980 
1070.000000	24.417114 
1068.000000	24.398803 
1066.000000	24.386596 
1064.000000	24.387359 
1062.000000	24.378967 
1060.000000	24.329376 
1058.000000	24.153900 
1056.000000	23.618316 
1054.000000	22.551727 
1052.000000	21.378326 
1050.000000	20.869445 
1048.000000	21.426391 
1046.000000	22.613525 
1044.000000	23.668670 
1042.000000	24.272918 
1040.000000	24.601745 
1038.000000	24.801635 
1036.000000	24.978637 
1034.000000	25.109100 
1032.000000	25.222778 
1030.000000	25.308227 
1028.000000	25.393676 
1026.000000	25.463867 
1024.000000	25.535583 
1022.000000	25.594329 
1020.000000	25.685882 
1018.000000	25.802612 
1016.000000	25.921630 
1014.000000	26.032257 
1012.000000	26.139068 
1010.000000	26.232147 
1008.000000	26.312255 
1006.000000	26.374816 
1004.000000	26.425170 
1002.000000	26.466369 
1000.000000	26.497650 
998.000000	 26.520538 
996.000000	 26.520538 
994.000000	 26.515960 
992.000000	 26.492309 
990.000000	 26.457977 
988.000000	 26.405334 
986.000000	 26.358795 
984.000000	 26.287841 
982.000000	 26.229095 
980.000000	 26.174926 
978.000000	 26.144409 
976.000000	 26.093292 
974.000000	 26.028442 
972.000000	 25.933837 
970.000000	 25.833129 
968.000000	 25.711059 
966.000000	 25.576782 
964.000000	 25.418090 
962.000000	 25.247955 
960.000000	 25.062561 
958.000000	 24.873352 
956.000000	 24.668884 
954.000000	 24.454498 
952.000000	 24.246215 
950.000000	 24.044799 
948.000000	 23.861694 
946.000000	 23.694610 
944.000000	 23.540496 
942.000000	 23.377990 
940.000000	 23.208618 
938.000000	 23.018646 
936.000000	 22.824096 
934.000000	 22.613525 
932.000000	 22.412109 
930.000000	 22.198486 
928.000000	 21.987152 
926.000000	 21.764373 
924.000000	 21.546173 
922.000000	 21.310424 
920.000000	 21.076202 
918.000000	 20.810699 
916.000000	 20.504760 
914.000000	 20.130920 
912.000000	 19.718933 
910.000000	 19.313049 
908.000000	 18.970489 
906.000000	 18.690490 
904.000000	 18.444824 
902.000000	 18.193817 
900.000000	 17.946624 
898.000000	 17.713928 
896.000000	 17.493438 
894.000000	 17.272186 
892.000000	 17.020416 
890.000000	 16.722106 
888.000000	 16.350555 
886.000000	 15.911102 
884.000000	 15.397644 
882.000000	 14.855194 
880.000000	 14.327239 
878.000000	 13.915252 
876.000000	 13.680267 
874.000000	 13.645172 
872.000000	 13.772583 
870.000000	 14.026641 
868.000000	 14.292144 
866.000000	 14.498138 
864.000000	 14.598083 
862.000000	 14.617156 
860.000000	 14.564514 
858.000000	 14.472961 
856.000000	 14.344787 
854.000000	 14.195251 
852.000000	 14.042663 
850.000000	 13.896942 
848.000000	 13.753509 
846.000000	 13.624572 
844.000000	 13.500213 
842.000000	 13.360595 
840.000000	 13.194274 
838.000000	 12.981414 
836.000000	 12.677001 
834.000000	 12.207794 
832.000000	 11.540222 
830.000000	 10.692596 
828.000000	 9.809112  
826.000000	 9.098815  
824.000000	 8.839416  
822.000000	 9.153747  
820.000000	 9.848785  
818.000000	 10.512542 
816.000000	 10.945892 
814.000000	 11.169433 
812.000000	 11.298370 
810.000000	 11.376953 
808.000000	 11.434173 
806.000000	 11.473846 
804.000000	 11.515808 
802.000000	 11.562347 
800.000000	 11.601257 
798.000000	 11.631011 
796.000000	 11.677551 
794.000000	 11.725616 
792.000000	 11.767578 
790.000000	 11.802673 
788.000000	 11.826324 
786.000000	 11.830902 
784.000000	 11.827087 
782.000000	 11.827850 
780.000000	 11.814117 
778.000000	 11.787414 
776.000000	 11.759948 
774.000000	 11.746215 
772.000000	 11.715698 
770.000000	 11.675262 
768.000000	 11.628723 
766.000000	 11.587524 
764.000000	 11.538696 
762.000000	 11.492156 
760.000000	 11.440277 
758.000000	 11.396026 
756.000000	 11.334991 
754.000000	 11.273956 
752.000000	 11.225128 
750.000000	 11.182403 
748.000000	 11.119079 
746.000000	 11.035919 
744.000000	 10.952758 
742.000000	 10.888671 
740.000000	 10.839080 
738.000000	 10.800933 
736.000000	 10.742950 
734.000000	 10.669708 
732.000000	 10.585784 
730.000000	 10.497283 
728.000000	 10.424804 
726.000000	 10.361480 
724.000000	 10.291290 
722.000000	 10.072326 
720.000000	 9.881591  
718.000000	 9.976959  
716.000000	 10.025024 
714.000000	 9.949493  
712.000000	 9.882354  
710.000000	 9.807586  
708.000000	 9.684753  
706.000000	 9.533691  
704.000000	 9.416198  
702.000000	 9.335327  
700.000000	 9.180450  
698.000000	 8.953094  
696.000000	 8.728790  
694.000000	 8.485412  
692.000000	 8.148956  
690.000000	 7.667541  
688.000000	 7.263183  
686.000000	 7.214355  
684.000000	 7.342529  
682.000000	 7.401275  
680.000000	 7.392120  
678.000000	 7.397460  
676.000000	 7.426452  
674.000000	 7.464599  
672.000000	 7.306671  
670.000000	 5.685424  
668.000000	 4.400634  
666.000000	 6.123352  
664.000000	 7.427215  
662.000000	 7.313537  
660.000000	 7.059478  
658.000000	 6.920623  
656.000000	 6.823730  
654.000000	 6.748199  
652.000000	 6.652832  
650.000000	 6.562805  
648.000000	 6.526184  
646.000000	 6.581878  
644.000000	 6.584930  
642.000000	 6.571197  
640.000000	 6.520080  
638.000000	 6.461334  
636.000000	 6.348419  
634.000000	 6.285858  
632.000000	 6.289672  
630.000000	 6.262969  
628.000000	 6.153106  
626.000000	 5.984497  
624.000000	 5.903625  
622.000000	 5.856323  
620.000000	 5.696868  
618.000000	 5.462646  
616.000000	 5.361175  
614.000000	 5.380249  
612.000000	 5.318450  
610.000000	 5.152130  
608.000000	 4.920959  
606.000000	 4.706573  
604.000000	 4.630279  
602.000000	 4.608917  
600.000000	 4.582977  
598.000000	 4.627227  
596.000000	 4.623413  
594.000000	 4.499816  
592.000000	 4.345703  
590.000000	 4.394531  
588.000000	 4.475402  
586.000000	 4.397583  
584.000000	 4.319000  
582.000000	 4.242706  
580.000000	 4.194641  
578.000000	 4.154205  
576.000000	 4.060363  
574.000000	 4.116821  
572.000000	 4.138183  
570.000000	 4.022979  
568.000000	 3.961944  
566.000000	 3.999328  
564.000000	 4.023742  
562.000000	 4.016113  
560.000000	 3.998565  
558.000000	 3.968811  
556.000000	 3.923034  
554.000000	 3.900146  
552.000000	 3.849792  
550.000000	 3.763580  
548.000000	 3.710174  
546.000000	 3.687286  
544.000000	 3.747558  
542.000000	 3.782653  
540.000000	 3.750610  
538.000000	 3.714752  
536.000000	 3.675842  
534.000000	 3.675842  
532.000000	 3.679656  
530.000000	 3.656005  
528.000000	 3.482055  
526.000000	 3.276062  
524.000000	 3.388977  
522.000000	 3.459930  
520.000000	 3.224945  
518.000000	 3.012847  
516.000000	 3.079223  
514.000000	 3.257751  
512.000000	 3.279113  
510.000000	 3.200531  
508.000000	 3.066253  
506.000000	 3.006744  
504.000000	 2.910614  
502.000000	 2.769470  
500.000000	 2.923583  
498.000000	 3.015899  
496.000000	 2.964019  
494.000000	 2.826690  
492.000000	 2.696990  
490.000000	 2.719879  
488.000000	 2.725219  
486.000000	 2.568054  
484.000000	 2.449798  
482.000000	 2.487182  
480.000000	 2.525329  
478.000000	 2.467346  
476.000000	 2.354431  
474.000000	 2.093505  
472.000000	 1.916503  
470.000000	 2.017974  
468.000000	 2.035522  
466.000000	 2.032470  
464.000000	 1.992034  
462.000000	 1.853179  
460.000000	 1.637268  
458.000000	 1.377868  
456.000000	 1.422882  
454.000000	 1.497650  
452.000000	 1.435852  
450.000000	 1.434326  
448.000000	 1.359558  
446.000000	 1.278686  
444.000000	 1.194000  
442.000000	 1.154327  
440.000000	 1.215362  
438.000000	 1.184844  
436.000000	 1.083374  
434.000000	 1.073455  
432.000000	 1.040649  
430.000000	 1.000213  
428.000000	 0.953674  
426.000000	 0.848388  
424.000000	 0.735473  
422.000000	 0.639343  
420.000000	 0.453186  
418.000000	 0.408172  
416.000000	 0.583648  
414.000000	 0.647735  
412.000000	 0.606536  
410.000000	 0.568389  
408.000000	 0.529479  
406.000000	 0.489044  
404.000000	 0.450897  
402.000000	 0.379943  
400.000000	 0.263214  

